# Quantenoptiklabor: Experiment Zwei-Photonen-Interferenz nach Franson
# Messung vom 07.05.2010 und 05.05.2010
# Datenaufnahme: jeder Messpunkt: 1s
# Didaktik der Physik, Universität Erlangen
# Lab-User: Florian Bier

#Aufnahme der Koinzidenzen von den Datektoren an Interferometerausgängen Alice und Bob

# Das Interferometer Alice steht bei allen Messungen auf einer Armlängendifferenz von 50 µm

#Achsenbeschriftung:
# Weg [µm]	Koinz bei Wegunterschied Bob 0µm [Hz]	Koinz bei Wegunterschied Bob 50 µm[Hz]	Koinz bei Wegunterschied Bob 30µm [Hz]


0.0049419	4652.2	3412.4	2824.4
0.0082016	4645.5	3435.8	2831.5
0.012112	4706	3425.2	2867.8
0.017324	4810.5	3557.2	2825.5
0.020584	4824.8	3519.6	2822
0.025797	4942.5	3593	2819.5
0.029707	5022.8	3657.4	2842.3
0.033617	4994.2	3600.2	2854.2
0.037528	5048.1	3748.4	2870.4
0.041438	5059.1	3711.6	2847.9
0.046	5098.9	3741	2833.1
0.049911	5047.1	3779.2	2834.8
0.054472	5011	3717.4	2827.9
0.059033	5019.4	3719.8	2855
0.062943	5025.4	3762.6	2834.8
0.065551	4989.9	3733.4	2845.2
0.071416	4936.6	3788	2853.2
0.075326	4907.4	3726	2844.4
0.079237	4855.5	3755.4	2829.1
0.083798	4771.8	3703.2	2850.4
0.087709	4711.7	3727.8	2869.1
0.091619	4653.8	3689.4	2851
0.09553	4560.7	3672	2867.6
0.09944	4332.2	3665.8	2856.2
0.104	4305.1	3631.6	2839.6
0.10791	4203.4	3571.4	2824.1
0.11247	4084.4	3477.8	2859.2
0.11638	3912.2	3397.4	2843.2
0.12095	3876	3437.4	2834.8
0.1242	3712.5	3370.2	2861
0.12942	3632.3	3396.8	2862.9
0.13268	3468.4	3354	2869
0.13659	3311	3255.6	2867
0.1405	3247	3177.4	2846.9
0.14506	3194.5	3095.8	2847.3
0.15027	2934.5	2963.2	2813
0.15288	2813.2	2985	2833.7
0.15679	2658.8	2841.2	2844.1
0.16135	2616.5	2861.4	2875.4
0.16591	2439.9	2810	2847.9
0.16852	2347.1	2693.2	2831.6
0.17373	2228.3	2646.2	2859.7
0.17699	1986.9	2685	2862.2
0.18155	1840	2586.8	2824.4
0.18546	1732.1	2455.8	2860.8
0.18937	1683.2	2415.6	2838.7
0.19328	1527.2	2373	2871.1
0.19785	1361	2271	2839.3
0.20111	1161.5	2168.2	2839.4
0.20632	1144.9	2205	2846.5
0.21023	1037.3	2130	2835.8
0.21479	1010.4	2060	2867
0.21805	878.8	2043.6	2856.1
0.22131	811.9	2001	2841.5
0.22652	762.2	2007.6	2866.6
0.23043	700.1	1927.2	2832.5
0.23499	712.5	1917.2	2842
0.23825	635.2	1920.6	2906.3
0.24216	605.8	1878	2835.1
0.24738	586.4	1851.2	2835.9
0.25194	572	1872.4	2842.8
0.25455	585.1	1848.8	2827.2
0.25976	575.4	1855	2829.8
0.26367	571.5	1837.4	2834.7
0.26758	610.4	1846.2	2825.3
0.27214	673.7	1917.2	2826.3
0.27605	651	1921.2	2851.7
0.27931	760.1	1899	2842.8
0.28387	744.8	1937.8	2806.8
0.28713	820.6	2022.6	2858.1
0.293	861.3	2009.8	2822.9
0.29691	978.3	2037.8	2826.4
0.30082	1119.8	2006.4	2799.1
0.30538	1206.1	2125.4	2833.8
0.30798	1361.8	2118.2	2833.6
0.3132	1386.1	2140	2844.4
0.31711	1453.8	2219.6	2833.7
0.32167	1639.2	2326	2836.8
0.32493	1762.9	2336.8	2853.3
0.32949	1809.1	2272	2817.4
0.3334	2020.9	2526.4	2809.3
0.33731	2242	2396.4	2828.9
0.34187	2264.8	2538.6	2813.1
0.34513	2422.4	2574	2804.3
0.34969	2445.3	2598.6	2814
0.35426	2667.4	2629.8	2814.7
0.35751	2821.3	2656.4	2817
0.36142	2891	2793.2	2807
0.36599	3146.9	2886.8	2825.6
0.3712	3371.3	2885.6	2812
0.37446	3513.2	2979	2818.8
0.37706	3464.1	3052.4	2830.5
0.38228	3655.5	3156.2	2862.7
0.38619	3836.2	3188.6	2822.8
0.39075	3867.4	3231.2	2779.8
0.39466	3953.1	3351.4	2802.1
0.39857	4186.6	3434.6	2838.7
0.40248	4301.5	3380.6	2820.4
0.40639	4429.2	3466.4	2824.9
0.41095	4485.3	3502.4	2796.8
0.41552	4523.3	3583.4	2812.4
0.41877	4671.5	3694.4	2789
0.42268	4729.7	3691	2787.4
0.42659	4793.6	3643.6	2810
0.43116	4856.6	3732.2	2789.6
0.43442	4997.8	3756	2805.6
0.43963	5000.6	3733	2823.4
0.44354	5084.9	3784	2819.6
0.4481	5114.5	3776.8	2840.7
0.45201	5121.8	3752.8	2815.9
0.45657	5137.2	3765.2	2812
0.45983	5125.7	3762.2	2769.3
0.46374	5208.4	3731.6	2799.7
0.467	5151.9	3755.8	2834.5
0.47221	5142.7	3749.8	2825.2
0.47612	5092.2	3712.4	2819.1
0.48003	5098.4	3723.6	2792.3
0.48394	5021.7	3664.2	2811.6
0.48785	4960.5	3648.8	2806.3
0.49242	4897	3659.6	2810.5
0.49567	4825.4	3538.4	2801.2
0.50024	4755	3554.8	2811.8
0.5048	4804.4	3476.6	2831
0.50806	4687.2	3355	2821.2
0.51132	4482.2	3399.8	2830.5
0.51588	4387.9	3288.4	2834.9
0.52044	4373.8	3309.4	2838.6
0.525	4095.8	3295.4	2788.8
0.52891	4183.5	3120	2832.2
0.53217	3915.5	3051	2811.8
0.53608	3807.6	2918.6	2822
0.53999	3738.5	2960.2	2822.6
0.54521	3560.6	2813.4	2798
0.54846	3363.6	2757.2	2826
0.55172	3332.3	2763.8	2818.5
0.55759	3196.4	2637.8	2844
0.56019	2880.2	2599.2	2826
0.56476	2728.5	2495.6	2834.3
0.56867	2654	2468.4	2853.3
0.57258	2520.9	2327.4	2825.9
0.57583	2301.1	2330.2	2825.7
0.5804	2134.5	2243.4	2817.7
0.58496	1963	2201.8	2816.5
0.58822	2032.2	2195.4	2828.7
0.59278	1731.1	2059.8	2842.6
0.59539	1640.6	2057.2	2801.2
0.6006	1551.5	1981.8	2819.5
0.60516	1363.9	1982	2831.1
0.60972	1232.1	1918.6	2849.9
0.61298	1101.5	1905.6	2832.7
0.61754	1080.3	1883.6	2876.9
0.6208	942.1	1854	2819.2
0.62471	881.3	1839.8	2864.5
0.62927	797.6	1818	2848.7
0.63384	767.4	1836	2863.9
0.63775	669.4	1857	2844
0.6397	611.7	1826.2	2830.7
0.64557	545.7	1863.6	2846.2
0.64882	526.7	1887.6	2851
0.65339	500.7	1910.8	2812.4
0.6573	489	1945.6	2848.6
0.66121	497.2	1972	2844.6
0.66577	491.3	1966.4	2855.7
0.66968	496.1	2076.2	2841.4
0.67424	531.3	2108.8	2844.4
0.67815	577.5	2110.2	2845.8
0.68206	590	2209.2	2876.6
0.68662	621.3	2264.6	2842.8
0.68988	688.4	2322.4	2828.6
0.69379	774.8	2339.6	2863.3
0.6964	830.3	2413.6	2841.5
0.70161	954.1	2393.4	2839
0.70487	992.5	2512.2	2852.4
0.71009	1204.1	2521	2863.5
0.71334	1194.3	2603.6	2848.2
0.71725	1345.9	2703.2	2836.9
0.72116	1418.2	2720	2865.3
0.72573	1550.2	2834.6	2853.8
0.72964	1607	2753	2841.9
0.73355	1761.9	2873.6	2847.8
0.73746	1985.4	2922.6	2835.9
0.74137	1988	2939.6	2850.5
0.74658	2137	3032.6	2824.2
0.74919	2454.5	3097	2840.9
0.7544	2526.4	3075.8	2844.5
0.75766	2634.3	3045.8	2826.6
0.76092	2761.4	3017.6	2835.3
0.76613	2864.6	3171.8	2834.8
0.76939	2974.8	3232	2831.5
0.7733	3155.2	3255.2	2858.1
0.77786	3437.7	3253.8	2862.1
0.78112	3492.7	3366.4	2852.7
0.78568	3614.4	3448.4	2838.3
0.78959	3723.7	3556	2823.9
0.79285	3942.3	3585.2	2858.3
0.79806	3992.6	3548.2	2840.1
0.80198	4080.5	3577.8	2829.5
0.80654	4206.8	3602	2837.5
0.81045	4392.7	3685	2833.6
0.81501	4471.7	3622.8	2835.4
0.81892	4578.5	3682.6	2826.2
0.82283	4631.1	3745.6	2821.5
0.82674	4773.1	3710.4	2835.1
0.83	4873.2	3785.6	2829.8
0.83521	4963.4	3767	2831.4
0.83782	5012.1	3823.6	2845
0.84173	5031	3781.8	2824.4
0.84564	5054.2	3813.4	2830.2
0.84955	5147	3783	2817.4
0.85411	5199.5	3855.8	2835.6
0.85737	5205.8	3812.2	2828.1
0.86258	5219.5	3762.6	2817.9
0.86584	5189.1	3786.8	2815.5
0.8704	5220.5	3771.2	2827.5
0.87431	5187.8	3749.8	2822.3
0.87822	5085.8	3727	2806.5
0.88148	5122.3	3708.4	2830.1
0.88604	5125.8	3645	2811.1
0.8893	5045.7	3686.4	2832.1
0.89452	5024.2	3610.2	2840.8
0.89843	4983.4	3541.2	2789.5
0.90299	4864.8	3559.4	2812.1
0.90755	4794.2	3518.4	2820.7
0.91081	4749.9	3554.4	2793.8
0.91342	4623.8	3406	2815.9
0.91798	4601	3402.6	2849
0.92254	4469.7	3305.6	2837.6
0.92515	4398.1	3250.6	2826.1
0.92971	4186.8	3227.2	2817.5
0.93362	4004.3	3110	2834.1
0.93753	3893.5	3020.2	2813.5
0.94209	3780.9	2982.2	2834
0.94665	3776.4	3007.4	2842.2
0.95056	3573.2	2912	2838.4
0.95447	3415.9	2889.2	2836.6
0.95838	3261.1	2840.8	2820.1
0.96229	3027	2776.2	2821.9
0.9662	2948.5	2755	2790.8
0.97077	2696.2	2782	2807.9
0.97402	2668.6	2676.6	2796.4
0.97793	2491.8	2613.2	2845.9
0.98315	2278.7	2611.8	2829.1
0.98706	2157.9	2451.8	2803.2
0.98967	2059.1	2498	2810.9
0.99488	1876.9	2404.4	2807.9
0.99879	1676.1	2383.2	2817.2
1.0027	1696	2373	2802.5
1.0066	1620.1	2367.8	2825.6
1.0092	1461.4	2195.4	2832.3
1.0138	1268.1	2217.6	2847
1.019	1308.7	2140.2	2816.2
1.0223	1107.6	2072.4	2830.1
1.0268	943.9	2027.6	2845.8
1.0307	856.3	2061.6	2828.6
1.0346	826.3	1995.2	2828.7
1.0385	742.6	1933.8	2809.8
1.0425	683.6	1903.2	2817
1.0464	648.3	1890.2	2818.4
1.0509	537.6	1907	2798.6
1.0542	535.7	1898.8	2818.6
1.0581	489.1	1843.4	2837.5
1.0627	494.3	1857.6	2825.9
1.0666	470.5	1848.8	2816.7
1.0711	475.2	1876.8	2800.6
1.075	472	1833.4	2836.2
1.0789	510	1826.8	2867.1
1.0822	514.1	1810	2852
1.0861	519.8	1829	2816.3
1.09	598.3	1817.8	2859.5
1.0933	604.1	1851.4	2852.7
1.0972	663.8	1874.2	2847.9
1.1031	720.2	1865.2	2869.4
1.1063	863.7	1868.2	2890
1.1096	917.2	1951.4	2827.4
1.1135	989.2	1948.2	2834.2
1.1181	1191.3	1991.4	2855.3
1.122	1175.6	1969.8	2827.8
1.1265	1338	2014.4	2874.3
1.1298	1397.4	2081.4	2838.5
1.1337	1616.3	2152.6	2850.6
1.1383	1710.3	2137.2	2843.2
1.1415	1763.2	2190	2852.8
1.1454	1949.7	2241.2	2850.1
1.15	2152.7	2349.2	2833.1
1.1539	2182.1	2292	2839.2
1.1578	2454.1	2422.8	2849.9
1.1611	2520.9	2535	2867.2
1.1656	2735.7	2449.4	2859.7
1.1695	2866.1	2549.6	2837
1.1734	2923.9	2539.8	2847
1.1774	3122.8	2616	2830.6
1.1813	3408.6	2666	2837.6
1.1852	3421.4	2628	2868
1.1891	3455.6	2760.8	2843.8
1.193	3614.7	2865.4	2841.6
1.1976	3950.2	2997.6	2836.3
1.2008	4000.6	3083.8	2863.5
1.2047	4167.9	3182.4	2842.3
1.2093	4313.9	3215.8	2838.8
1.2132	4189.1	3232	2856.3
1.2171	4435.1	3290.2	2839
1.2217	4551.1	3353.2	2840.5
1.2249	4740	3366.2	2858.2
1.2288	4831.5	3410.6	2859.9
1.2334	4877.5	3380	2868.8
1.2367	4937.5	3475.4	2830.9
1.2412	5005	3517.2	2851
1.2438	5067.4	3541.6	2834.7
1.249	5051.1	3561	2873.6
1.253	5135.5	3581.8	2881.4
1.2562	5159.8	3561.4	2834.4
1.2595	5217.9	3636.4	2860.1
1.264	5174.6	3710	2857.8
1.2679	5204.6	3740.2	2841.6
1.2732	5195.4	3715.8	2843.5
1.2764	5170.1	3753.6	2851.9
1.2797	5190	3791.6	2808.8
1.2842	5185	3721.6	2830.8
1.2875	5073.7	3811	2828.7
1.2914	5084.5	3769.4	2823.5
1.296	4998	3809.4	2830.5
1.3005	4904.4	3751	2819.8
1.3038	4879	3785.2	2823.9
1.307	4714.5	3808	2821.5
1.311	4610.5	3798.4	2816.7
1.3168	4526.3	3771	2822.3
1.3188	4504.4	3778.4	2842.2
1.3233	4346.5	3730	2814.4
1.3266	4280.7	3718.6	2833.7
1.3325	4041.1	3646.2	2841.6
1.3357	3958.3	3741	2819.8
1.339	3732.2	3690.8	2799.9
1.3429	3664.4	3648.8	2802.6
1.3481	3525.3	3621.4	2839.2
1.3507	3438.5	3586.8	2797.7
1.3546	3151.8	3537	2808.9
1.3592	3253.4	3427.4	2804.1
1.3624	3115.6	3465	2800.9
1.367	2866.3	3508.2	2822.9
1.3716	2740.7	3500.8	2830.9
1.3748	2435.5	3364.4	2827.1
1.38	2357.5	3338.2	2832.3
1.3826	2301.3	3193.4	2816.1
1.3866	2063.7	3158.8	2822.4
1.3918	1914.4	3107.4	2848.3
1.3937	1863.1	3066.4	2823.9
1.3983	1689.3	3017.2	2783.9
1.4028	1483.5	2920.8	2836.6
1.4074	1353	2875.2	2829.2
1.4107	1320.9	2719.8	2818.6
1.4146	1162.9	2728.8	2792.5
1.4185	1157.4	2734.6	2801.2
1.423	1052.7	2744.6	2826.9
1.4263	906.6	2691.6	2828.7
1.4302	775	2649.8	2829
1.4348	768.5	2569.4	2826.7
1.438	711.2	2524.6	2791.5
1.4419	648.1	2375.2	2836.1
1.4459	628.8	2433.8	2826.2
1.4498	579.6	2190.4	2831.1
1.4543	536.5	2219.6	2815.5
1.4576	505.2	2239.2	2834.6
1.4615	510.6	2118	2831.1
1.4661	499.9	2113.8	2817.1
1.47	510.5	2082.6	2826.6
1.4732	521.7	2046.8	2819.2
1.4771	564.5	2029	2857
1.481	583.3	2016	2846.6
1.4856	624.5	1964.8	2810.4
1.4889	686.7	1928	2824.8
1.4928	778	1895.6	2816.8
1.4967	792.3	1871.2	2810.5
1.4999	865.4	1852.6	2826.8
